振幅(deg),周期(s),总时长(s)
154,1.5631,1.5631
142,1.564,17.1986
130,1.5645,32.8411
120,1.5651,48.4891
110,1.5656,64.1426
101,1.566,79.8006
92,1.5664,95.4626
83,1.5668,111.1286
75,1.5672,126.7986
67,1.5675,142.4721
60,1.5678,158.1486
53,1.5679,173.8271
46,1.568,189.5066
40,1.5679,205.1861
34,1.5679,220.8651
29,1.5678,236.5436
25,1.5676,252.2206
21,1.5674,267.8956